
 ------------------------------------------------------------
     resonance       Raman Scattering Plot
 ------------------------------------------------------------
 Excitation wavelength  514.50 nm
 Convolution lineshape is lorentzian  
 FWHM   20.00  1/cm
 ------------------------------------------------------------
 ------------------------------------------------------------
 # of frequencies :     3
 ------------------------------------------------------------
#  freq [ 1/cm]  S-tot [a.u.]S-real [a.u.]  S-imag [a.u.]
 ------------------------------------------------------------
   1  1582.10        1.6775        1.6773        0.0003
   2  3674.09      114.8866      114.8728        0.0138
   3  3785.25       28.8927       28.8893        0.0034
 ------------------------------------------------------------
  1524.42    0.5942E-04    0.5941E-04    0.9592E-08
  1526.75    0.6428E-04    0.6427E-04    0.1038E-07
  1529.08    0.6976E-04    0.6975E-04    0.1127E-07
  1531.40    0.7598E-04    0.7597E-04    0.1228E-07
  1533.73    0.8307E-04    0.8305E-04    0.1343E-07
  1536.05    0.9119E-04    0.9117E-04    0.1474E-07
  1538.38    0.1006E-03    0.1005E-03    0.1626E-07
  1540.70    0.1114E-03    0.1114E-03    0.1802E-07
  1543.03    0.1241E-03    0.1241E-03    0.2008E-07
  1545.35    0.1391E-03    0.1391E-03    0.2251E-07
  1547.68    0.1569E-03    0.1569E-03    0.2540E-07
  1550.00    0.1783E-03    0.1782E-03    0.2886E-07
  1552.33    0.2041E-03    0.2041E-03    0.3305E-07
  1554.66    0.2358E-03    0.2358E-03    0.3819E-07
  1556.98    0.2751E-03    0.2750E-03    0.4455E-07
  1559.31    0.3244E-03    0.3243E-03    0.5255E-07
  1561.63    0.3871E-03    0.3870E-03    0.6271E-07
  1563.96    0.4679E-03    0.4678E-03    0.7581E-07
  1566.28    0.5732E-03    0.5731E-03    0.9288E-07
  1568.61    0.7115E-03    0.7114E-03    0.1153E-06
  1570.93    0.8928E-03    0.8926E-03    0.1447E-06
  1573.26    0.1126E-02    0.1126E-02    0.1824E-06
  1575.59    0.1408E-02    0.1407E-02    0.2282E-06
  1577.91    0.1705E-02    0.1705E-02    0.2764E-06
  1580.24    0.1937E-02    0.1937E-02    0.3140E-06
  1582.56    0.2000E-02    0.2000E-02    0.3242E-06
  1584.89    0.1860E-02    0.1860E-02    0.3015E-06
  1587.21    0.1589E-02    0.1589E-02    0.2576E-06
  1589.54    0.1291E-02    0.1291E-02    0.2092E-06
  1591.86    0.1027E-02    0.1026E-02    0.1664E-06
  1594.19    0.8149E-03    0.8148E-03    0.1321E-06
  1596.51    0.6519E-03    0.6518E-03    0.1056E-06
  1598.84    0.5279E-03    0.5278E-03    0.8554E-07
  1601.17    0.4333E-03    0.4332E-03    0.7019E-07
  1603.49    0.3603E-03    0.3603E-03    0.5837E-07
  1605.82    0.3034E-03    0.3034E-03    0.4915E-07
  1608.14    0.2585E-03    0.2584E-03    0.4186E-07
  1610.47    0.2225E-03    0.2224E-03    0.3602E-07
  1612.79    0.1933E-03    0.1933E-03    0.3129E-07
  1615.12    0.1694E-03    0.1693E-03    0.2741E-07
  1617.44    0.1495E-03    0.1495E-03    0.2420E-07
  1619.77    0.1329E-03    0.1329E-03    0.2151E-07
  1622.09    0.1189E-03    0.1189E-03    0.1923E-07
  1624.42    0.1070E-03    0.1070E-03    0.1730E-07
  1626.75    0.9675E-04    0.9673E-04    0.1564E-07
  1629.07    0.8791E-04    0.8790E-04    0.1421E-07
  1631.40    0.8023E-04    0.8021E-04    0.1296E-07
  1633.72    0.7351E-04    0.7350E-04    0.1187E-07
  1636.05    0.6760E-04    0.6759E-04    0.1091E-07
  1638.37    0.6238E-04    0.6237E-04    0.1007E-07
  1640.70    0.5775E-04    0.5774E-04    0.9317E-08
  1643.02    0.5362E-04    0.5361E-04    0.8647E-08
  1645.35    0.4992E-04    0.4991E-04    0.8047E-08
  1647.67    0.4659E-04    0.4658E-04    0.7508E-08
  1650.00    0.4359E-04    0.4359E-04    0.7022E-08
  1652.33    0.4088E-04    0.4088E-04    0.6582E-08
  1654.65    0.3842E-04    0.3841E-04    0.6183E-08
  1656.98    0.3618E-04    0.3617E-04    0.5819E-08
  1659.30    0.3413E-04    0.3413E-04    0.5487E-08
  1661.63    0.3226E-04    0.3225E-04    0.5184E-08
  1663.95    0.3054E-04    0.3053E-04    0.4905E-08
  1666.28    0.2896E-04    0.2895E-04    0.4649E-08
  1668.60    0.2750E-04    0.2750E-04    0.4412E-08
  1670.93    0.2616E-04    0.2615E-04    0.4194E-08
  1673.26    0.2491E-04    0.2491E-04    0.3992E-08
  1675.58    0.2376E-04    0.2375E-04    0.3805E-08
  1677.91    0.2268E-04    0.2268E-04    0.3631E-08
  1680.23    0.2169E-04    0.2168E-04    0.3469E-08
  1682.56    0.2076E-04    0.2075E-04    0.3318E-08
  1684.88    0.1989E-04    0.1988E-04    0.3177E-08
  1687.21    0.1907E-04    0.1907E-04    0.3045E-08
  1689.53    0.1831E-04    0.1831E-04    0.2922E-08
  1691.86    0.1760E-04    0.1760E-04    0.2806E-08
  1694.18    0.1693E-04    0.1693E-04    0.2697E-08
  1696.51    0.1630E-04    0.1630E-04    0.2595E-08
  1698.84    0.1571E-04    0.1571E-04    0.2499E-08
  1701.16    0.1515E-04    0.1515E-04    0.2409E-08
  1703.49    0.1463E-04    0.1462E-04    0.2323E-08
  1705.81    0.1413E-04    0.1413E-04    0.2243E-08
  1708.14    0.1366E-04    0.1366E-04    0.2166E-08
  1710.46    0.1321E-04    0.1321E-04    0.2094E-08
  1712.79    0.1279E-04    0.1279E-04    0.2026E-08
  1715.11    0.1239E-04    0.1239E-04    0.1961E-08
  1717.44    0.1201E-04    0.1201E-04    0.1899E-08
  1719.76    0.1165E-04    0.1165E-04    0.1841E-08
  1722.09    0.1131E-04    0.1131E-04    0.1785E-08
  1724.42    0.1099E-04    0.1099E-04    0.1732E-08
  1726.74    0.1068E-04    0.1068E-04    0.1682E-08
  1729.07    0.1038E-04    0.1038E-04    0.1634E-08
  1731.39    0.1010E-04    0.1010E-04    0.1588E-08
  1733.72    0.9833E-05    0.9831E-05    0.1545E-08
  1736.04    0.9576E-05    0.9575E-05    0.1503E-08
  1738.37    0.9331E-05    0.9330E-05    0.1463E-08
  1740.69    0.9097E-05    0.9096E-05    0.1425E-08
  1743.02    0.8873E-05    0.8872E-05    0.1389E-08
  1745.34    0.8659E-05    0.8657E-05    0.1354E-08
  1747.67    0.8453E-05    0.8452E-05    0.1320E-08
  1750.00    0.8257E-05    0.8255E-05    0.1288E-08
  1752.32    0.8068E-05    0.8067E-05    0.1258E-08
  1754.65    0.7887E-05    0.7886E-05    0.1228E-08
  1756.97    0.7713E-05    0.7712E-05    0.1200E-08
  1759.30    0.7546E-05    0.7545E-05    0.1173E-08
  1761.62    0.7386E-05    0.7385E-05    0.1147E-08
  1763.95    0.7232E-05    0.7231E-05    0.1122E-08
  1766.27    0.7083E-05    0.7082E-05    0.1097E-08
  1768.60    0.6941E-05    0.6940E-05    0.1074E-08
  1770.93    0.6804E-05    0.6802E-05    0.1052E-08
  1773.25    0.6671E-05    0.6670E-05    0.1030E-08
  1775.58    0.6544E-05    0.6543E-05    0.1009E-08
  1777.90    0.6421E-05    0.6420E-05    0.9894E-09
  1780.23    0.6303E-05    0.6302E-05    0.9701E-09
  1782.55    0.6189E-05    0.6188E-05    0.9514E-09
  1784.88    0.6078E-05    0.6077E-05    0.9334E-09
  1787.20    0.5972E-05    0.5971E-05    0.9161E-09
  1789.53    0.5869E-05    0.5868E-05    0.8993E-09
  1791.85    0.5770E-05    0.5769E-05    0.8831E-09
  1794.18    0.5674E-05    0.5673E-05    0.8674E-09
  1796.51    0.5582E-05    0.5581E-05    0.8523E-09
  1798.83    0.5492E-05    0.5491E-05    0.8376E-09
  1801.16    0.5405E-05    0.5404E-05    0.8234E-09
  1803.48    0.5321E-05    0.5321E-05    0.8097E-09
  1805.81    0.5240E-05    0.5240E-05    0.7964E-09
  1808.13    0.5162E-05    0.5161E-05    0.7835E-09
  1810.46    0.5086E-05    0.5085E-05    0.7711E-09
  1812.78    0.5012E-05    0.5011E-05    0.7590E-09
  1815.11    0.4941E-05    0.4940E-05    0.7473E-09
  1817.43    0.4871E-05    0.4871E-05    0.7360E-09
  1819.76    0.4804E-05    0.4804E-05    0.7249E-09
  1822.09    0.4739E-05    0.4739E-05    0.7143E-09
  1824.41    0.4676E-05    0.4676E-05    0.7039E-09
  1826.74    0.4615E-05    0.4614E-05    0.6939E-09
  1829.06    0.4556E-05    0.4555E-05    0.6841E-09
  1831.39    0.4498E-05    0.4497E-05    0.6746E-09
  1833.71    0.4442E-05    0.4442E-05    0.6654E-09
  1836.04    0.4388E-05    0.4387E-05    0.6565E-09
  1838.36    0.4335E-05    0.4335E-05    0.6478E-09
  1840.69    0.4284E-05    0.4283E-05    0.6394E-09
  1843.01    0.4234E-05    0.4234E-05    0.6311E-09
  1845.34    0.4186E-05    0.4185E-05    0.6232E-09
  1847.67    0.4139E-05    0.4138E-05    0.6154E-09
  1849.99    0.4093E-05    0.4093E-05    0.6079E-09
  1852.32    0.4049E-05    0.4048E-05    0.6005E-09
  1854.64    0.4006E-05    0.4005E-05    0.5934E-09
  1856.97    0.3964E-05    0.3963E-05    0.5864E-09
  1859.29    0.3923E-05    0.3922E-05    0.5797E-09
  1861.62    0.3883E-05    0.3882E-05    0.5731E-09
  1863.94    0.3844E-05    0.3844E-05    0.5667E-09
  1866.27    0.3807E-05    0.3806E-05    0.5604E-09
  1868.60    0.3770E-05    0.3770E-05    0.5543E-09
  1870.92    0.3734E-05    0.3734E-05    0.5484E-09
  1873.25    0.3700E-05    0.3699E-05    0.5426E-09
  1875.57    0.3666E-05    0.3665E-05    0.5370E-09
  1877.90    0.3633E-05    0.3632E-05    0.5315E-09
  1880.22    0.3601E-05    0.3600E-05    0.5262E-09
  1882.55    0.3570E-05    0.3569E-05    0.5210E-09
  1884.87    0.3539E-05    0.3539E-05    0.5159E-09
  1887.20    0.3510E-05    0.3509E-05    0.5110E-09
  1889.52    0.3481E-05    0.3480E-05    0.5061E-09
  1891.85    0.3453E-05    0.3452E-05    0.5014E-09
  1894.18    0.3425E-05    0.3425E-05    0.4968E-09
  1896.50    0.3399E-05    0.3398E-05    0.4923E-09
  1898.83    0.3373E-05    0.3372E-05    0.4880E-09
  1901.15    0.3347E-05    0.3347E-05    0.4837E-09
  1903.48    0.3322E-05    0.3322E-05    0.4795E-09
  1905.80    0.3298E-05    0.3298E-05    0.4755E-09
  1908.13    0.3275E-05    0.3274E-05    0.4715E-09
  1910.45    0.3252E-05    0.3251E-05    0.4676E-09
  1912.78    0.3230E-05    0.3229E-05    0.4639E-09
  1915.10    0.3208E-05    0.3207E-05    0.4602E-09
  1917.43    0.3187E-05    0.3186E-05    0.4566E-09
  1919.76    0.3166E-05    0.3165E-05    0.4531E-09
  1922.08    0.3146E-05    0.3145E-05    0.4496E-09
  1924.41    0.3126E-05    0.3125E-05    0.4463E-09
  1926.73    0.3107E-05    0.3106E-05    0.4430E-09
  1929.06    0.3088E-05    0.3088E-05    0.4398E-09
  1931.38    0.3070E-05    0.3069E-05    0.4367E-09
  1933.71    0.3052E-05    0.3051E-05    0.4336E-09
  1936.03    0.3034E-05    0.3034E-05    0.4306E-09
  1938.36    0.3017E-05    0.3017E-05    0.4277E-09
  1940.68    0.3001E-05    0.3000E-05    0.4249E-09
  1943.01    0.2985E-05    0.2984E-05    0.4221E-09
  1945.34    0.2969E-05    0.2969E-05    0.4194E-09
  1947.66    0.2954E-05    0.2953E-05    0.4167E-09
  1949.99    0.2939E-05    0.2938E-05    0.4141E-09
  1952.31    0.2924E-05    0.2924E-05    0.4116E-09
  1954.64    0.2910E-05    0.2909E-05    0.4091E-09
  1956.96    0.2896E-05    0.2896E-05    0.4067E-09
  1959.29    0.2882E-05    0.2882E-05    0.4043E-09
  1961.61    0.2869E-05    0.2869E-05    0.4020E-09
  1963.94    0.2856E-05    0.2856E-05    0.3998E-09
  1966.27    0.2844E-05    0.2843E-05    0.3976E-09
  1968.59    0.2831E-05    0.2831E-05    0.3954E-09
  1970.92    0.2820E-05    0.2819E-05    0.3933E-09
  1973.24    0.2808E-05    0.2808E-05    0.3912E-09
  1975.57    0.2797E-05    0.2796E-05    0.3892E-09
  1977.89    0.2785E-05    0.2785E-05    0.3873E-09
  1980.22    0.2775E-05    0.2774E-05    0.3853E-09
  1982.54    0.2764E-05    0.2764E-05    0.3835E-09
  1984.87    0.2754E-05    0.2754E-05    0.3816E-09
  1987.19    0.2744E-05    0.2744E-05    0.3798E-09
  1989.52    0.2734E-05    0.2734E-05    0.3781E-09
  1991.85    0.2725E-05    0.2724E-05    0.3764E-09
  1994.17    0.2716E-05    0.2715E-05    0.3747E-09
  1996.50    0.2707E-05    0.2706E-05    0.3730E-09
  1998.82    0.2698E-05    0.2698E-05    0.3715E-09
  2001.15    0.2689E-05    0.2689E-05    0.3699E-09
  2003.47    0.2681E-05    0.2681E-05    0.3684E-09
  2005.80    0.2673E-05    0.2673E-05    0.3669E-09
  2008.12    0.2665E-05    0.2665E-05    0.3654E-09
  2010.45    0.2658E-05    0.2657E-05    0.3640E-09
  2012.77    0.2650E-05    0.2650E-05    0.3626E-09
  2015.10    0.2643E-05    0.2643E-05    0.3613E-09
  2017.43    0.2636E-05    0.2636E-05    0.3599E-09
  2019.75    0.2629E-05    0.2629E-05    0.3587E-09
  2022.08    0.2623E-05    0.2622E-05    0.3574E-09
  2024.40    0.2616E-05    0.2616E-05    0.3562E-09
  2026.73    0.2610E-05    0.2610E-05    0.3550E-09
  2029.05    0.2604E-05    0.2604E-05    0.3538E-09
  2031.38    0.2598E-05    0.2598E-05    0.3527E-09
  2033.70    0.2592E-05    0.2592E-05    0.3515E-09
  2036.03    0.2587E-05    0.2587E-05    0.3505E-09
  2038.36    0.2582E-05    0.2581E-05    0.3494E-09
  2040.68    0.2576E-05    0.2576E-05    0.3484E-09
  2043.01    0.2571E-05    0.2571E-05    0.3474E-09
  2045.33    0.2567E-05    0.2566E-05    0.3464E-09
  2047.66    0.2562E-05    0.2562E-05    0.3454E-09
  2049.98    0.2557E-05    0.2557E-05    0.3445E-09
  2052.31    0.2553E-05    0.2553E-05    0.3436E-09
  2054.63    0.2549E-05    0.2548E-05    0.3427E-09
  2056.96    0.2545E-05    0.2544E-05    0.3419E-09
  2059.28    0.2541E-05    0.2540E-05    0.3410E-09
  2061.61    0.2537E-05    0.2537E-05    0.3402E-09
  2063.94    0.2533E-05    0.2533E-05    0.3394E-09
  2066.26    0.2530E-05    0.2530E-05    0.3387E-09
  2068.59    0.2527E-05    0.2526E-05    0.3379E-09
  2070.91    0.2523E-05    0.2523E-05    0.3372E-09
  2073.24    0.2520E-05    0.2520E-05    0.3365E-09
  2075.56    0.2517E-05    0.2517E-05    0.3358E-09
  2077.89    0.2515E-05    0.2514E-05    0.3351E-09
  2080.21    0.2512E-05    0.2512E-05    0.3345E-09
  2082.54    0.2509E-05    0.2509E-05    0.3339E-09
  2084.86    0.2507E-05    0.2507E-05    0.3333E-09
  2087.19    0.2505E-05    0.2504E-05    0.3327E-09
  2089.52    0.2502E-05    0.2502E-05    0.3321E-09
  2091.84    0.2500E-05    0.2500E-05    0.3316E-09
  2094.17    0.2498E-05    0.2498E-05    0.3310E-09
  2096.49    0.2497E-05    0.2496E-05    0.3305E-09
  2098.82    0.2495E-05    0.2495E-05    0.3300E-09
  2101.14    0.2493E-05    0.2493E-05    0.3295E-09
  2103.47    0.2492E-05    0.2492E-05    0.3291E-09
  2105.79    0.2490E-05    0.2490E-05    0.3286E-09
  2108.12    0.2489E-05    0.2489E-05    0.3282E-09
  2110.44    0.2488E-05    0.2488E-05    0.3278E-09
  2112.77    0.2487E-05    0.2487E-05    0.3274E-09
  2115.10    0.2486E-05    0.2486E-05    0.3270E-09
  2117.42    0.2485E-05    0.2485E-05    0.3267E-09
  2119.75    0.2484E-05    0.2484E-05    0.3263E-09
  2122.07    0.2484E-05    0.2483E-05    0.3260E-09
  2124.40    0.2483E-05    0.2483E-05    0.3257E-09
  2126.72    0.2483E-05    0.2482E-05    0.3254E-09
  2129.05    0.2482E-05    0.2482E-05    0.3251E-09
  2131.37    0.2482E-05    0.2482E-05    0.3248E-09
  2133.70    0.2482E-05    0.2482E-05    0.3246E-09
  2136.03    0.2482E-05    0.2482E-05    0.3243E-09
  2138.35    0.2482E-05    0.2482E-05    0.3241E-09
  2140.68    0.2482E-05    0.2482E-05    0.3239E-09
  2143.00    0.2482E-05    0.2482E-05    0.3237E-09
  2145.33    0.2483E-05    0.2482E-05    0.3235E-09
  2147.65    0.2483E-05    0.2483E-05    0.3233E-09
  2149.98    0.2484E-05    0.2483E-05    0.3232E-09
  2152.30    0.2484E-05    0.2484E-05    0.3230E-09
  2154.63    0.2485E-05    0.2484E-05    0.3229E-09
  2156.95    0.2486E-05    0.2485E-05    0.3228E-09
  2159.28    0.2486E-05    0.2486E-05    0.3227E-09
  2161.61    0.2487E-05    0.2487E-05    0.3226E-09
  2163.93    0.2488E-05    0.2488E-05    0.3225E-09
  2166.26    0.2489E-05    0.2489E-05    0.3224E-09
  2168.58    0.2491E-05    0.2490E-05    0.3223E-09
  2170.91    0.2492E-05    0.2492E-05    0.3223E-09
  2173.23    0.2493E-05    0.2493E-05    0.3223E-09
  2175.56    0.2495E-05    0.2494E-05    0.3222E-09
  2177.88    0.2496E-05    0.2496E-05    0.3222E-09
  2180.21    0.2498E-05    0.2497E-05    0.3222E-09
  2182.53    0.2499E-05    0.2499E-05    0.3222E-09
  2184.86    0.2501E-05    0.2501E-05    0.3223E-09
  2187.19    0.2503E-05    0.2502E-05    0.3223E-09
  2189.51    0.2505E-05    0.2504E-05    0.3223E-09
  2191.84    0.2507E-05    0.2506E-05    0.3224E-09
  2194.16    0.2509E-05    0.2508E-05    0.3225E-09
  2196.49    0.2511E-05    0.2510E-05    0.3226E-09
  2198.81    0.2513E-05    0.2513E-05    0.3226E-09
  2201.14    0.2515E-05    0.2515E-05    0.3227E-09
  2203.46    0.2518E-05    0.2517E-05    0.3229E-09
  2205.79    0.2520E-05    0.2520E-05    0.3230E-09
  2208.11    0.2522E-05    0.2522E-05    0.3231E-09
  2210.44    0.2525E-05    0.2525E-05    0.3233E-09
  2212.77    0.2528E-05    0.2527E-05    0.3234E-09
  2215.09    0.2530E-05    0.2530E-05    0.3236E-09
  2217.42    0.2533E-05    0.2533E-05    0.3237E-09
  2219.74    0.2536E-05    0.2536E-05    0.3239E-09
  2222.07    0.2539E-05    0.2538E-05    0.3241E-09
  2224.39    0.2542E-05    0.2541E-05    0.3243E-09
  2226.72    0.2545E-05    0.2544E-05    0.3245E-09
  2229.04    0.2548E-05    0.2548E-05    0.3248E-09
  2231.37    0.2551E-05    0.2551E-05    0.3250E-09
  2233.70    0.2554E-05    0.2554E-05    0.3252E-09
  2236.02    0.2558E-05    0.2557E-05    0.3255E-09
  2238.35    0.2561E-05    0.2561E-05    0.3258E-09
  2240.67    0.2564E-05    0.2564E-05    0.3260E-09
  2243.00    0.2568E-05    0.2568E-05    0.3263E-09
  2245.32    0.2571E-05    0.2571E-05    0.3266E-09
  2247.65    0.2575E-05    0.2575E-05    0.3269E-09
  2249.97    0.2579E-05    0.2579E-05    0.3272E-09
  2252.30    0.2583E-05    0.2582E-05    0.3275E-09
  2254.62    0.2586E-05    0.2586E-05    0.3279E-09
  2256.95    0.2590E-05    0.2590E-05    0.3282E-09
  2259.28    0.2594E-05    0.2594E-05    0.3285E-09
  2261.60    0.2598E-05    0.2598E-05    0.3289E-09
  2263.93    0.2602E-05    0.2602E-05    0.3293E-09
  2266.25    0.2607E-05    0.2606E-05    0.3296E-09
  2268.58    0.2611E-05    0.2611E-05    0.3300E-09
  2270.90    0.2615E-05    0.2615E-05    0.3304E-09
  2273.23    0.2620E-05    0.2619E-05    0.3308E-09
  2275.55    0.2624E-05    0.2624E-05    0.3312E-09
  2277.88    0.2628E-05    0.2628E-05    0.3316E-09
  2280.20    0.2633E-05    0.2633E-05    0.3321E-09
  2282.53    0.2638E-05    0.2637E-05    0.3325E-09
  2284.86    0.2642E-05    0.2642E-05    0.3329E-09
  2287.18    0.2647E-05    0.2647E-05    0.3334E-09
  2289.51    0.2652E-05    0.2651E-05    0.3338E-09
  2291.83    0.2657E-05    0.2656E-05    0.3343E-09
  2294.16    0.2662E-05    0.2661E-05    0.3348E-09
  2296.48    0.2667E-05    0.2666E-05    0.3353E-09
  2298.81    0.2672E-05    0.2671E-05    0.3358E-09
  2301.13    0.2677E-05    0.2676E-05    0.3363E-09
  2303.46    0.2682E-05    0.2682E-05    0.3368E-09
  2305.78    0.2687E-05    0.2687E-05    0.3373E-09
  2308.11    0.2693E-05    0.2692E-05    0.3378E-09
  2310.44    0.2698E-05    0.2698E-05    0.3384E-09
  2312.76    0.2703E-05    0.2703E-05    0.3389E-09
  2315.09    0.2709E-05    0.2708E-05    0.3395E-09
  2317.41    0.2714E-05    0.2714E-05    0.3401E-09
  2319.74    0.2720E-05    0.2720E-05    0.3406E-09
  2322.06    0.2726E-05    0.2725E-05    0.3412E-09
  2324.39    0.2731E-05    0.2731E-05    0.3418E-09
  2326.71    0.2737E-05    0.2737E-05    0.3424E-09
  2329.04    0.2743E-05    0.2743E-05    0.3430E-09
  2331.37    0.2749E-05    0.2749E-05    0.3436E-09
  2333.69    0.2755E-05    0.2755E-05    0.3442E-09
  2336.02    0.2761E-05    0.2761E-05    0.3449E-09
  2338.34    0.2767E-05    0.2767E-05    0.3455E-09
  2340.67    0.2773E-05    0.2773E-05    0.3462E-09
  2342.99    0.2780E-05    0.2779E-05    0.3468E-09
  2345.32    0.2786E-05    0.2786E-05    0.3475E-09
  2347.64    0.2792E-05    0.2792E-05    0.3481E-09
  2349.97    0.2799E-05    0.2798E-05    0.3488E-09
  2352.29    0.2805E-05    0.2805E-05    0.3495E-09
  2354.62    0.2812E-05    0.2811E-05    0.3502E-09
  2356.95    0.2818E-05    0.2818E-05    0.3509E-09
  2359.27    0.2825E-05    0.2825E-05    0.3516E-09
  2361.60    0.2832E-05    0.2832E-05    0.3524E-09
  2363.92    0.2839E-05    0.2838E-05    0.3531E-09
  2366.25    0.2846E-05    0.2845E-05    0.3538E-09
  2368.57    0.2853E-05    0.2852E-05    0.3546E-09
  2370.90    0.2860E-05    0.2859E-05    0.3553E-09
  2373.22    0.2867E-05    0.2866E-05    0.3561E-09
  2375.55    0.2874E-05    0.2873E-05    0.3569E-09
  2377.87    0.2881E-05    0.2881E-05    0.3576E-09
