
 ------------------------------------------------------------
     resonance       Raman Scattering Plot
 ------------------------------------------------------------
 Excitation wavelength  514.50 nm
 Convolution lineshape is lorentzian  
 FWHM   20.00  1/cm
 ------------------------------------------------------------
 ------------------------------------------------------------
 # of frequencies :     3
 ------------------------------------------------------------
#  freq [ 1/cm]  S-tot [a.u.]S-real [a.u.]  S-imag [a.u.]
 ------------------------------------------------------------
   1  1593.06        0.8360        0.8356        0.0003
   2  3680.51      115.8798      115.8667        0.0131
   3  3784.84       28.5170       28.5137        0.0032
 ------------------------------------------------------------
  1535.37    0.2980E-04    0.2979E-04    0.1076E-07
  1537.68    0.3219E-04    0.3218E-04    0.1164E-07
  1540.00    0.3488E-04    0.3487E-04    0.1264E-07
  1542.31    0.3793E-04    0.3792E-04    0.1376E-07
  1544.63    0.4140E-04    0.4139E-04    0.1504E-07
  1546.94    0.4538E-04    0.4536E-04    0.1651E-07
  1549.26    0.4996E-04    0.4994E-04    0.1820E-07
  1551.57    0.5527E-04    0.5525E-04    0.2016E-07
  1553.88    0.6148E-04    0.6145E-04    0.2245E-07
  1556.20    0.6878E-04    0.6875E-04    0.2515E-07
  1558.51    0.7744E-04    0.7741E-04    0.2835E-07
  1560.83    0.8782E-04    0.8779E-04    0.3218E-07
  1563.14    0.1004E-03    0.1003E-03    0.3682E-07
  1565.45    0.1157E-03    0.1157E-03    0.4248E-07
  1567.77    0.1347E-03    0.1347E-03    0.4950E-07
  1570.08    0.1585E-03    0.1585E-03    0.5828E-07
  1572.40    0.1887E-03    0.1886E-03    0.6943E-07
  1574.71    0.2275E-03    0.2274E-03    0.8377E-07
  1577.02    0.2780E-03    0.2779E-03    0.1024E-06
  1579.34    0.3442E-03    0.3441E-03    0.1268E-06
  1581.65    0.4309E-03    0.4308E-03    0.1589E-06
  1583.97    0.5426E-03    0.5424E-03    0.2001E-06
  1586.28    0.6789E-03    0.6786E-03    0.2504E-06
  1588.59    0.8259E-03    0.8256E-03    0.3047E-06
  1590.91    0.9465E-03    0.9461E-03    0.3492E-06
  1593.22    0.9898E-03    0.9894E-03    0.3652E-06
  1595.54    0.9327E-03    0.9324E-03    0.3442E-06
  1597.85    0.8052E-03    0.8049E-03    0.2971E-06
  1600.17    0.6580E-03    0.6578E-03    0.2427E-06
  1602.48    0.5249E-03    0.5247E-03    0.1936E-06
  1604.79    0.4170E-03    0.4169E-03    0.1537E-06
  1607.11    0.3335E-03    0.3334E-03    0.1229E-06
  1609.42    0.2699E-03    0.2698E-03    0.9941E-07
  1611.74    0.2213E-03    0.2213E-03    0.8147E-07
  1614.05    0.1839E-03    0.1839E-03    0.6766E-07
  1616.36    0.1548E-03    0.1547E-03    0.5689E-07
  1618.68    0.1318E-03    0.1317E-03    0.4840E-07
  1620.99    0.1134E-03    0.1133E-03    0.4160E-07
  1623.31    0.9847E-04    0.9844E-04    0.3610E-07
  1625.62    0.8627E-04    0.8624E-04    0.3159E-07
  1627.93    0.7617E-04    0.7614E-04    0.2786E-07
  1630.25    0.6772E-04    0.6770E-04    0.2474E-07
  1632.56    0.6060E-04    0.6057E-04    0.2211E-07
  1634.88    0.5454E-04    0.5452E-04    0.1987E-07
  1637.19    0.4934E-04    0.4933E-04    0.1795E-07
  1639.50    0.4486E-04    0.4484E-04    0.1630E-07
  1641.82    0.4097E-04    0.4095E-04    0.1486E-07
  1644.13    0.3757E-04    0.3755E-04    0.1360E-07
  1646.45    0.3458E-04    0.3456E-04    0.1250E-07
  1648.76    0.3194E-04    0.3192E-04    0.1152E-07
  1651.08    0.2959E-04    0.2958E-04    0.1066E-07
  1653.39    0.2751E-04    0.2750E-04    0.9886E-08
  1655.70    0.2564E-04    0.2563E-04    0.9195E-08
  1658.02    0.2396E-04    0.2395E-04    0.8575E-08
  1660.33    0.2245E-04    0.2244E-04    0.8016E-08
  1662.65    0.2108E-04    0.2108E-04    0.7511E-08
  1664.96    0.1984E-04    0.1983E-04    0.7052E-08
  1667.27    0.1871E-04    0.1871E-04    0.6634E-08
  1669.59    0.1768E-04    0.1768E-04    0.6253E-08
  1671.90    0.1674E-04    0.1673E-04    0.5905E-08
  1674.22    0.1588E-04    0.1587E-04    0.5585E-08
  1676.53    0.1508E-04    0.1508E-04    0.5291E-08
  1678.84    0.1435E-04    0.1434E-04    0.5020E-08
  1681.16    0.1367E-04    0.1367E-04    0.4769E-08
  1683.47    0.1305E-04    0.1304E-04    0.4538E-08
  1685.79    0.1247E-04    0.1246E-04    0.4323E-08
  1688.10    0.1193E-04    0.1192E-04    0.4123E-08
  1690.42    0.1143E-04    0.1142E-04    0.3938E-08
  1692.73    0.1096E-04    0.1096E-04    0.3765E-08
  1695.04    0.1053E-04    0.1052E-04    0.3603E-08
  1697.36    0.1012E-04    0.1012E-04    0.3453E-08
  1699.67    0.9738E-05    0.9734E-05    0.3311E-08
  1701.99    0.9381E-05    0.9378E-05    0.3179E-08
  1704.30    0.9046E-05    0.9043E-05    0.3054E-08
  1706.61    0.8731E-05    0.8728E-05    0.2937E-08
  1708.93    0.8435E-05    0.8432E-05    0.2827E-08
  1711.24    0.8156E-05    0.8153E-05    0.2724E-08
  1713.56    0.7893E-05    0.7890E-05    0.2626E-08
  1715.87    0.7645E-05    0.7642E-05    0.2534E-08
  1718.18    0.7410E-05    0.7408E-05    0.2446E-08
  1720.50    0.7188E-05    0.7186E-05    0.2364E-08
  1722.81    0.6978E-05    0.6976E-05    0.2286E-08
  1725.13    0.6779E-05    0.6777E-05    0.2211E-08
  1727.44    0.6590E-05    0.6588E-05    0.2141E-08
  1729.75    0.6411E-05    0.6409E-05    0.2074E-08
  1732.07    0.6241E-05    0.6239E-05    0.2011E-08
  1734.38    0.6079E-05    0.6077E-05    0.1950E-08
  1736.70    0.5925E-05    0.5923E-05    0.1893E-08
  1739.01    0.5779E-05    0.5777E-05    0.1838E-08
  1741.33    0.5639E-05    0.5637E-05    0.1785E-08
  1743.64    0.5506E-05    0.5504E-05    0.1736E-08
  1745.95    0.5378E-05    0.5377E-05    0.1688E-08
  1748.27    0.5257E-05    0.5255E-05    0.1642E-08
  1750.58    0.5141E-05    0.5139E-05    0.1599E-08
  1752.90    0.5030E-05    0.5029E-05    0.1557E-08
  1755.21    0.4924E-05    0.4923E-05    0.1517E-08
  1757.52    0.4823E-05    0.4821E-05    0.1479E-08
  1759.84    0.4725E-05    0.4724E-05    0.1442E-08
  1762.15    0.4632E-05    0.4631E-05    0.1407E-08
  1764.47    0.4543E-05    0.4542E-05    0.1374E-08
  1766.78    0.4457E-05    0.4456E-05    0.1341E-08
  1769.09    0.4375E-05    0.4374E-05    0.1310E-08
  1771.41    0.4296E-05    0.4295E-05    0.1280E-08
  1773.72    0.4220E-05    0.4219E-05    0.1252E-08
  1776.04    0.4148E-05    0.4146E-05    0.1224E-08
  1778.35    0.4078E-05    0.4076E-05    0.1197E-08
  1780.67    0.4010E-05    0.4009E-05    0.1172E-08
  1782.98    0.3946E-05    0.3944E-05    0.1147E-08
  1785.29    0.3883E-05    0.3882E-05    0.1123E-08
  1787.61    0.3823E-05    0.3822E-05    0.1100E-08
  1789.92    0.3765E-05    0.3764E-05    0.1078E-08
  1792.24    0.3710E-05    0.3709E-05    0.1057E-08
  1794.55    0.3656E-05    0.3655E-05    0.1036E-08
  1796.86    0.3604E-05    0.3603E-05    0.1017E-08
  1799.18    0.3554E-05    0.3553E-05    0.9974E-09
  1801.49    0.3506E-05    0.3505E-05    0.9788E-09
  1803.81    0.3460E-05    0.3459E-05    0.9609E-09
  1806.12    0.3415E-05    0.3414E-05    0.9435E-09
  1808.43    0.3372E-05    0.3371E-05    0.9268E-09
  1810.75    0.3330E-05    0.3329E-05    0.9105E-09
  1813.06    0.3289E-05    0.3288E-05    0.8948E-09
  1815.38    0.3250E-05    0.3249E-05    0.8796E-09
  1817.69    0.3212E-05    0.3212E-05    0.8649E-09
  1820.00    0.3176E-05    0.3175E-05    0.8506E-09
  1822.32    0.3141E-05    0.3140E-05    0.8368E-09
  1824.63    0.3106E-05    0.3106E-05    0.8233E-09
  1826.95    0.3073E-05    0.3073E-05    0.8103E-09
  1829.26    0.3041E-05    0.3041E-05    0.7977E-09
  1831.58    0.3011E-05    0.3010E-05    0.7855E-09
  1833.89    0.2981E-05    0.2980E-05    0.7736E-09
  1836.20    0.2952E-05    0.2951E-05    0.7621E-09
  1838.52    0.2923E-05    0.2923E-05    0.7509E-09
  1840.83    0.2896E-05    0.2895E-05    0.7400E-09
  1843.15    0.2870E-05    0.2869E-05    0.7295E-09
  1845.46    0.2844E-05    0.2844E-05    0.7192E-09
  1847.77    0.2820E-05    0.2819E-05    0.7092E-09
  1850.09    0.2796E-05    0.2795E-05    0.6995E-09
  1852.40    0.2772E-05    0.2772E-05    0.6901E-09
  1854.72    0.2750E-05    0.2749E-05    0.6810E-09
  1857.03    0.2728E-05    0.2727E-05    0.6721E-09
  1859.34    0.2707E-05    0.2706E-05    0.6634E-09
  1861.66    0.2686E-05    0.2686E-05    0.6549E-09
  1863.97    0.2666E-05    0.2666E-05    0.6467E-09
  1866.29    0.2647E-05    0.2646E-05    0.6387E-09
  1868.60    0.2628E-05    0.2628E-05    0.6310E-09
  1870.91    0.2610E-05    0.2609E-05    0.6234E-09
  1873.23    0.2592E-05    0.2592E-05    0.6160E-09
  1875.54    0.2575E-05    0.2575E-05    0.6088E-09
  1877.86    0.2559E-05    0.2558E-05    0.6018E-09
  1880.17    0.2543E-05    0.2542E-05    0.5950E-09
  1882.49    0.2527E-05    0.2526E-05    0.5883E-09
  1884.80    0.2512E-05    0.2511E-05    0.5819E-09
  1887.11    0.2497E-05    0.2496E-05    0.5755E-09
  1889.43    0.2483E-05    0.2482E-05    0.5694E-09
  1891.74    0.2469E-05    0.2468E-05    0.5634E-09
  1894.06    0.2455E-05    0.2455E-05    0.5575E-09
  1896.37    0.2442E-05    0.2442E-05    0.5518E-09
  1898.68    0.2430E-05    0.2429E-05    0.5462E-09
  1901.00    0.2417E-05    0.2417E-05    0.5408E-09
  1903.31    0.2405E-05    0.2405E-05    0.5355E-09
  1905.63    0.2394E-05    0.2393E-05    0.5303E-09
  1907.94    0.2383E-05    0.2382E-05    0.5252E-09
  1910.25    0.2372E-05    0.2371E-05    0.5203E-09
  1912.57    0.2361E-05    0.2361E-05    0.5155E-09
  1914.88    0.2351E-05    0.2351E-05    0.5108E-09
  1917.20    0.2341E-05    0.2341E-05    0.5062E-09
  1919.51    0.2331E-05    0.2331E-05    0.5017E-09
  1921.83    0.2322E-05    0.2322E-05    0.4973E-09
  1924.14    0.2313E-05    0.2313E-05    0.4930E-09
  1926.45    0.2304E-05    0.2304E-05    0.4888E-09
  1928.77    0.2296E-05    0.2295E-05    0.4848E-09
  1931.08    0.2288E-05    0.2287E-05    0.4808E-09
  1933.40    0.2280E-05    0.2279E-05    0.4769E-09
  1935.71    0.2272E-05    0.2271E-05    0.4731E-09
  1938.02    0.2264E-05    0.2264E-05    0.4693E-09
  1940.34    0.2257E-05    0.2257E-05    0.4657E-09
  1942.65    0.2250E-05    0.2250E-05    0.4621E-09
  1944.97    0.2243E-05    0.2243E-05    0.4586E-09
  1947.28    0.2237E-05    0.2236E-05    0.4552E-09
  1949.59    0.2230E-05    0.2230E-05    0.4519E-09
  1951.91    0.2224E-05    0.2224E-05    0.4487E-09
  1954.22    0.2218E-05    0.2218E-05    0.4455E-09
  1956.54    0.2213E-05    0.2212E-05    0.4424E-09
  1958.85    0.2207E-05    0.2207E-05    0.4393E-09
  1961.16    0.2202E-05    0.2201E-05    0.4364E-09
  1963.48    0.2197E-05    0.2196E-05    0.4335E-09
  1965.79    0.2192E-05    0.2191E-05    0.4306E-09
  1968.11    0.2187E-05    0.2187E-05    0.4278E-09
  1970.42    0.2182E-05    0.2182E-05    0.4251E-09
  1972.74    0.2178E-05    0.2177E-05    0.4225E-09
  1975.05    0.2174E-05    0.2173E-05    0.4199E-09
  1977.36    0.2170E-05    0.2169E-05    0.4173E-09
  1979.68    0.2166E-05    0.2165E-05    0.4148E-09
  1981.99    0.2162E-05    0.2161E-05    0.4124E-09
  1984.31    0.2158E-05    0.2158E-05    0.4100E-09
  1986.62    0.2155E-05    0.2154E-05    0.4077E-09
  1988.93    0.2151E-05    0.2151E-05    0.4054E-09
  1991.25    0.2148E-05    0.2148E-05    0.4032E-09
  1993.56    0.2145E-05    0.2145E-05    0.4010E-09
  1995.88    0.2142E-05    0.2142E-05    0.3989E-09
  1998.19    0.2140E-05    0.2139E-05    0.3968E-09
  2000.50    0.2137E-05    0.2137E-05    0.3947E-09
  2002.82    0.2134E-05    0.2134E-05    0.3927E-09
  2005.13    0.2132E-05    0.2132E-05    0.3908E-09
  2007.45    0.2130E-05    0.2129E-05    0.3889E-09
  2009.76    0.2128E-05    0.2127E-05    0.3870E-09
  2012.07    0.2126E-05    0.2125E-05    0.3852E-09
  2014.39    0.2124E-05    0.2124E-05    0.3834E-09
  2016.70    0.2122E-05    0.2122E-05    0.3816E-09
  2019.02    0.2121E-05    0.2120E-05    0.3799E-09
  2021.33    0.2119E-05    0.2119E-05    0.3783E-09
  2023.65    0.2118E-05    0.2117E-05    0.3766E-09
  2025.96    0.2116E-05    0.2116E-05    0.3750E-09
  2028.27    0.2115E-05    0.2115E-05    0.3735E-09
  2030.59    0.2114E-05    0.2114E-05    0.3719E-09
  2032.90    0.2113E-05    0.2113E-05    0.3704E-09
  2035.22    0.2112E-05    0.2112E-05    0.3690E-09
  2037.53    0.2111E-05    0.2111E-05    0.3675E-09
  2039.84    0.2111E-05    0.2110E-05    0.3661E-09
  2042.16    0.2110E-05    0.2110E-05    0.3648E-09
  2044.47    0.2110E-05    0.2109E-05    0.3634E-09
  2046.79    0.2109E-05    0.2109E-05    0.3621E-09
  2049.10    0.2109E-05    0.2109E-05    0.3609E-09
  2051.41    0.2109E-05    0.2109E-05    0.3596E-09
  2053.73    0.2109E-05    0.2108E-05    0.3584E-09
  2056.04    0.2109E-05    0.2108E-05    0.3572E-09
  2058.36    0.2109E-05    0.2109E-05    0.3561E-09
  2060.67    0.2109E-05    0.2109E-05    0.3549E-09
  2062.99    0.2109E-05    0.2109E-05    0.3538E-09
  2065.30    0.2110E-05    0.2109E-05    0.3527E-09
  2067.61    0.2110E-05    0.2110E-05    0.3517E-09
  2069.93    0.2111E-05    0.2110E-05    0.3507E-09
  2072.24    0.2111E-05    0.2111E-05    0.3496E-09
  2074.56    0.2112E-05    0.2111E-05    0.3487E-09
  2076.87    0.2113E-05    0.2112E-05    0.3477E-09
  2079.18    0.2113E-05    0.2113E-05    0.3468E-09
  2081.50    0.2114E-05    0.2114E-05    0.3459E-09
  2083.81    0.2115E-05    0.2115E-05    0.3450E-09
  2086.13    0.2116E-05    0.2116E-05    0.3441E-09
  2088.44    0.2117E-05    0.2117E-05    0.3433E-09
  2090.75    0.2119E-05    0.2118E-05    0.3425E-09
  2093.07    0.2120E-05    0.2120E-05    0.3417E-09
  2095.38    0.2121E-05    0.2121E-05    0.3409E-09
  2097.70    0.2123E-05    0.2122E-05    0.3401E-09
  2100.01    0.2124E-05    0.2124E-05    0.3394E-09
  2102.32    0.2126E-05    0.2125E-05    0.3387E-09
  2104.64    0.2127E-05    0.2127E-05    0.3380E-09
  2106.95    0.2129E-05    0.2129E-05    0.3373E-09
  2109.27    0.2131E-05    0.2131E-05    0.3367E-09
  2111.58    0.2133E-05    0.2132E-05    0.3360E-09
  2113.90    0.2135E-05    0.2134E-05    0.3354E-09
  2116.21    0.2137E-05    0.2136E-05    0.3348E-09
  2118.52    0.2139E-05    0.2138E-05    0.3342E-09
  2120.84    0.2141E-05    0.2140E-05    0.3337E-09
  2123.15    0.2143E-05    0.2143E-05    0.3331E-09
  2125.47    0.2145E-05    0.2145E-05    0.3326E-09
  2127.78    0.2147E-05    0.2147E-05    0.3321E-09
  2130.09    0.2150E-05    0.2149E-05    0.3316E-09
  2132.41    0.2152E-05    0.2152E-05    0.3311E-09
  2134.72    0.2155E-05    0.2154E-05    0.3306E-09
  2137.04    0.2157E-05    0.2157E-05    0.3302E-09
  2139.35    0.2160E-05    0.2159E-05    0.3298E-09
  2141.66    0.2162E-05    0.2162E-05    0.3294E-09
  2143.98    0.2165E-05    0.2165E-05    0.3290E-09
  2146.29    0.2168E-05    0.2168E-05    0.3286E-09
  2148.61    0.2171E-05    0.2170E-05    0.3282E-09
  2150.92    0.2174E-05    0.2173E-05    0.3279E-09
  2153.23    0.2177E-05    0.2176E-05    0.3275E-09
  2155.55    0.2180E-05    0.2179E-05    0.3272E-09
  2157.86    0.2183E-05    0.2182E-05    0.3269E-09
  2160.18    0.2186E-05    0.2185E-05    0.3266E-09
  2162.49    0.2189E-05    0.2189E-05    0.3263E-09
  2164.81    0.2192E-05    0.2192E-05    0.3261E-09
  2167.12    0.2195E-05    0.2195E-05    0.3258E-09
  2169.43    0.2199E-05    0.2199E-05    0.3256E-09
  2171.75    0.2202E-05    0.2202E-05    0.3254E-09
  2174.06    0.2206E-05    0.2205E-05    0.3252E-09
  2176.38    0.2209E-05    0.2209E-05    0.3250E-09
  2178.69    0.2213E-05    0.2212E-05    0.3248E-09
  2181.00    0.2216E-05    0.2216E-05    0.3246E-09
  2183.32    0.2220E-05    0.2220E-05    0.3245E-09
  2185.63    0.2224E-05    0.2223E-05    0.3243E-09
  2187.95    0.2228E-05    0.2227E-05    0.3242E-09
  2190.26    0.2231E-05    0.2231E-05    0.3241E-09
  2192.57    0.2235E-05    0.2235E-05    0.3240E-09
  2194.89    0.2239E-05    0.2239E-05    0.3239E-09
  2197.20    0.2243E-05    0.2243E-05    0.3238E-09
  2199.52    0.2247E-05    0.2247E-05    0.3237E-09
  2201.83    0.2251E-05    0.2251E-05    0.3237E-09
  2204.15    0.2255E-05    0.2255E-05    0.3236E-09
  2206.46    0.2260E-05    0.2259E-05    0.3236E-09
  2208.77    0.2264E-05    0.2264E-05    0.3236E-09
  2211.09    0.2268E-05    0.2268E-05    0.3235E-09
  2213.40    0.2272E-05    0.2272E-05    0.3235E-09
  2215.72    0.2277E-05    0.2277E-05    0.3236E-09
  2218.03    0.2281E-05    0.2281E-05    0.3236E-09
  2220.34    0.2286E-05    0.2286E-05    0.3236E-09
  2222.66    0.2290E-05    0.2290E-05    0.3237E-09
  2224.97    0.2295E-05    0.2295E-05    0.3237E-09
  2227.29    0.2300E-05    0.2299E-05    0.3238E-09
  2229.60    0.2304E-05    0.2304E-05    0.3239E-09
  2231.91    0.2309E-05    0.2309E-05    0.3239E-09
  2234.23    0.2314E-05    0.2314E-05    0.3240E-09
  2236.54    0.2319E-05    0.2318E-05    0.3241E-09
  2238.86    0.2324E-05    0.2323E-05    0.3243E-09
  2241.17    0.2329E-05    0.2328E-05    0.3244E-09
  2243.48    0.2334E-05    0.2333E-05    0.3245E-09
  2245.80    0.2339E-05    0.2338E-05    0.3247E-09
  2248.11    0.2344E-05    0.2343E-05    0.3248E-09
  2250.43    0.2349E-05    0.2349E-05    0.3250E-09
  2252.74    0.2354E-05    0.2354E-05    0.3252E-09
  2255.06    0.2359E-05    0.2359E-05    0.3254E-09
  2257.37    0.2365E-05    0.2364E-05    0.3256E-09
  2259.68    0.2370E-05    0.2370E-05    0.3258E-09
  2262.00    0.2375E-05    0.2375E-05    0.3260E-09
  2264.31    0.2381E-05    0.2380E-05    0.3262E-09
  2266.63    0.2386E-05    0.2386E-05    0.3265E-09
  2268.94    0.2392E-05    0.2391E-05    0.3267E-09
  2271.25    0.2397E-05    0.2397E-05    0.3270E-09
  2273.57    0.2403E-05    0.2403E-05    0.3272E-09
  2275.88    0.2409E-05    0.2408E-05    0.3275E-09
  2278.20    0.2414E-05    0.2414E-05    0.3278E-09
  2280.51    0.2420E-05    0.2420E-05    0.3281E-09
  2282.82    0.2426E-05    0.2426E-05    0.3284E-09
  2285.14    0.2432E-05    0.2432E-05    0.3287E-09
  2287.45    0.2438E-05    0.2438E-05    0.3290E-09
  2289.77    0.2444E-05    0.2444E-05    0.3294E-09
  2292.08    0.2450E-05    0.2450E-05    0.3297E-09
  2294.39    0.2456E-05    0.2456E-05    0.3301E-09
  2296.71    0.2462E-05    0.2462E-05    0.3304E-09
  2299.02    0.2468E-05    0.2468E-05    0.3308E-09
  2301.34    0.2475E-05    0.2474E-05    0.3312E-09
  2303.65    0.2481E-05    0.2481E-05    0.3316E-09
  2305.97    0.2487E-05    0.2487E-05    0.3319E-09
  2308.28    0.2494E-05    0.2493E-05    0.3324E-09
  2310.59    0.2500E-05    0.2500E-05    0.3328E-09
  2312.91    0.2507E-05    0.2506E-05    0.3332E-09
  2315.22    0.2513E-05    0.2513E-05    0.3336E-09
  2317.54    0.2520E-05    0.2519E-05    0.3341E-09
  2319.85    0.2526E-05    0.2526E-05    0.3345E-09
  2322.16    0.2533E-05    0.2533E-05    0.3350E-09
  2324.48    0.2540E-05    0.2539E-05    0.3354E-09
  2326.79    0.2547E-05    0.2546E-05    0.3359E-09
  2329.11    0.2553E-05    0.2553E-05    0.3364E-09
  2331.42    0.2560E-05    0.2560E-05    0.3369E-09
  2333.73    0.2567E-05    0.2567E-05    0.3374E-09
  2336.05    0.2574E-05    0.2574E-05    0.3379E-09
  2338.36    0.2581E-05    0.2581E-05    0.3384E-09
  2340.68    0.2588E-05    0.2588E-05    0.3389E-09
  2342.99    0.2596E-05    0.2595E-05    0.3395E-09
  2345.31    0.2603E-05    0.2602E-05    0.3400E-09
  2347.62    0.2610E-05    0.2610E-05    0.3405E-09
  2349.93    0.2617E-05    0.2617E-05    0.3411E-09
  2352.25    0.2625E-05    0.2624E-05    0.3417E-09
  2354.56    0.2632E-05    0.2632E-05    0.3422E-09
  2356.88    0.2640E-05    0.2639E-05    0.3428E-09
  2359.19    0.2647E-05    0.2647E-05    0.3434E-09
  2361.50    0.2655E-05    0.2654E-05    0.3440E-09
  2363.82    0.2662E-05    0.2662E-05    0.3446E-09
  2366.13    0.2670E-05    0.2670E-05    0.3453E-09
  2368.45    0.2678E-05    0.2678E-05    0.3459E-09
  2370.76    0.2686E-05    0.2685E-05    0.3465E-09
  2373.07    0.2694E-05    0.2693E-05    0.3472E-09
  2375.39    0.2701E-05    0.2701E-05    0.3478E-09
  2377.70    0.2709E-05    0.2709E-05    0.3485E-09
  2380.02    0.2717E-05    0.2717E-05    0.3491E-09
  2382.33    0.2726E-05    0.2725E-05    0.3498E-09
  2384.64    0.2734E-05    0.2733E-05    0.3505E-09
